File Version;BWSpec4.11_1
Date;2022-04-12 16:11:29
title;ZAFB
model;BRC112P-V
c code;ZAFB
operator;
port1;0
baud1;3
pixel_start;0
pixel_end;2047
step;1
units;1
bkcolor;16777215
show_mode;0
data_mode;0
pixel_mode;0
intigration times(ms);1
average number;1
time_multiply;1
spectrometer_type;63
yaxis;0
yaxis_min;0
yaxis_max;65535
xaxis;1
xaxis_min;73
xaxis_max;1955
irrands_DispWLMin;100
irrands_DispWLMax;1000
yaxis_min_6;0
yaxis_max_6;65535
irradiance_unit;0
Color_Data_Flag;0
Color_StartWL;400
Color_EndWL;700
Color_IncWL;10
power_unit_index;3
photometric_index;0
Illuminant_index;3
observer_index;0
lab_l;0
lab_a;0
lab_b;0
radiometric_flag;0
coefs_a0;317.794384991284
coefs_a1;0.443577830204049
coefs_a2;-3.30173878859696E-05
coefs_a3;-1.17603665341136E-09
coefs_b0;-724.425258341245
coefs_b1;2.29920846412642
coefs_b2;-0.000220172293984522
coefs_b3;4.38131310698166E-07
coefs_r0;1
coefs_r1;0
coefs_r2;0
coefs_r3;0
coefs_j0;1
coefs_j1;0
coefs_j2;0
coefs_j3;0
enable_coefs_r;0
all_data_save;1
select_option;-1
interval_time;1
pixel_num;2048
sel_pixel_start;0
sel_pixel_end;2016
sel_pixel_delta;1
dark_compensate;0
dark_compensate_value_1;0
dark_compensate_value_2;0
dark_compensate_value_3;0
monitor pixel_0;0
monitor pixel_1;0
monitor pixel_2;0
monitor pixel_3;0
monitor pixel_4;0
monitor pixel_5;0
vertical_select_flag;0
vertical_line3;0
vertical_line4;0
vertical_line3_wv;317.794384991284
vertical_line4_wv;317.794384991284
vertical_line_flag;0
vertical_line_ratio;0
laser_wavelength;0
laser_powerlevel;0
overlay_js;0
Relative Intensity Correction Flag;0
Pixel;Wavelength;Wavenumber;Raman Shift;Dark;Reference;Raw data #1;Dark Subtracted #1;%TR #1;Absorbance #1;Irradiance (W/cm^2/nm) #1;
0;   ;   ;   ;0.0000;0.0000;0.0000;0.0000;0.0000;0.0000;0.0000;
1;   ;   ;   ;0.0000;0.0000;0.0000;0.0000;0.0000;0.0000;0.0000;
2;   ;   ;   ;0.0000;0.0000;0.0000;0.0000;0.0000;0.0000;0.0000;
3;   ;   ;   ;0.0000;0.0000;0.0000;0.0000;0.0000;0.0000;0.0000;
4;   ;   ;   ;0.0000;0.0000;0.0000;0.0000;0.0000;0.0000;0.0000;
5;   ;   ;   ;0.0000;0.0000;0.0000;0.0000;0.0000;0.0000;0.0000;
6;   ;   ;   ;0.0000;0.0000;0.0000;0.0000;0.0000;0.0000;0.0000;
7;   ;   ;   ;0.0000;0.0000;0.0000;0.0000;0.0000;0.0000;0.0000;
8;   ;   ;   ;0.0000;0.0000;0.0000;0.0000;0.0000;0.0000;0.0000;
9;   ;   ;   ;0.0000;0.0000;0.0000;0.0000;0.0000;0.0000;0.0000;
10;   ;   ;   ;0.0000;0.0000;0.0000;0.0000;0.0000;0.0000;0.0000;
11;   ;   ;   ;0.0000;0.0000;0.0000;0.0000;0.0000;0.0000;0.0000;
12;   ;   ;   ;0.0000;0.0000;0.0000;0.0000;0.0000;0.0000;0.0000;
13;   ;   ;   ;0.0000;0.0000;0.0000;0.0000;0.0000;0.0000;0.0000;
14;   ;   ;   ;0.0000;0.0000;0.0000;0.0000;0.0000;0.0000;0.0000;
15;   ;   ;   ;0.0000;0.0000;0.0000;0.0000;0.0000;0.0000;0.0000;
16;   ;   ;   ;0.0000;0.0000;0.0000;0.0000;0.0000;0.0000;0.0000;
17;   ;   ;   ;0.0000;0.0000;0.0000;0.0000;0.0000;0.0000;0.0000;
18;   ;   ;   ;0.0000;0.0000;0.0000;0.0000;0.0000;0.0000;0.0000;
19;   ;   ;   ;0.0000;0.0000;0.0000;0.0000;0.0000;0.0000;0.0000;
20;   ;   ;   ;0.0000;0.0000;0.0000;0.0000;0.0000;0.0000;0.0000;
21;   ;   ;   ;0.0000;0.0000;0.0000;0.0000;0.0000;0.0000;0.0000;
22;   ;   ;   ;0.0000;0.0000;0.0000;0.0000;0.0000;0.0000;0.0000;
23;   ;   ;   ;0.0000;0.0000;0.0000;0.0000;0.0000;0.0000;0.0000;
24;   ;   ;   ;0.0000;0.0000;0.0000;0.0000;0.0000;0.0000;0.0000;
25;   ;   ;   ;0.0000;0.0000;0.0000;0.0000;0.0000;0.0000;0.0000;
26;   ;   ;   ;0.0000;0.0000;0.0000;0.0000;0.0000;0.0000;0.0000;
27;   ;   ;   ;0.0000;0.0000;0.0000;0.0000;0.0000;0.0000;0.0000;
28;   ;   ;   ;0.0000;0.0000;0.0000;0.0000;0.0000;0.0000;0.0000;
29;   ;   ;   ;0.0000;0.0000;0.0000;0.0000;0.0000;0.0000;0.0000;
30;   ;   ;   ;0.0000;0.0000;0.0000;0.0000;0.0000;0.0000;0.0000;
31;   ;   ;   ;0.0000;0.0000;0.0000;0.0000;0.0000;0.0000;0.0000;
32;   ;   ;   ;0.0000;0.0000;0.0000;0.0000;0.0000;0.0000;0.0000;
33;   ;   ;   ;0.0000;0.0000;0.0000;0.0000;0.0000;0.0000;0.0000;
34;   ;   ;   ;0.0000;0.0000;0.0000;0.0000;0.0000;0.0000;0.0000;
35;   ;   ;   ;0.0000;0.0000;0.0000;0.0000;0.0000;0.0000;0.0000;
36;   ;   ;   ;0.0000;0.0000;0.0000;0.0000;0.0000;0.0000;0.0000;
37;   ;   ;   ;0.0000;0.0000;0.0000;0.0000;0.0000;0.0000;0.0000;
38;   ;   ;   ;0.0000;0.0000;0.0000;0.0000;0.0000;0.0000;0.0000;
39;   ;   ;   ;0.0000;0.0000;0.0000;0.0000;0.0000;0.0000;0.0000;
40;   ;   ;   ;0.0000;0.0000;0.0000;0.0000;0.0000;0.0000;0.0000;
41;   ;   ;   ;0.0000;0.0000;0.0000;0.0000;0.0000;0.0000;0.0000;
42;   ;   ;   ;0.0000;0.0000;0.0000;0.0000;0.0000;0.0000;0.0000;
43;   ;   ;   ;0.0000;0.0000;0.0000;0.0000;0.0000;0.0000;0.0000;
44;   ;   ;   ;0.0000;0.0000;0.0000;0.0000;0.0000;0.0000;0.0000;
45;   ;   ;   ;0.0000;0.0000;0.0000;0.0000;0.0000;0.0000;0.0000;
46;   ;   ;   ;0.0000;0.0000;0.0000;0.0000;0.0000;0.0000;0.0000;
47;   ;   ;   ;0.0000;0.0000;0.0000;0.0000;0.0000;0.0000;0.0000;
48;   ;   ;   ;0.0000;0.0000;0.0000;0.0000;0.0000;0.0000;0.0000;
49;   ;   ;   ;0.0000;0.0000;0.0000;0.0000;0.0000;0.0000;0.0000;
50;   ;   ;   ;0.0000;0.0000;0.0000;0.0000;0.0000;0.0000;0.0000;
51;   ;   ;   ;0.0000;0.0000;0.0000;0.0000;0.0000;0.0000;0.0000;
52;   ;   ;   ;0.0000;0.0000;0.0000;0.0000;0.0000;0.0000;0.0000;
53;   ;   ;   ;0.0000;0.0000;0.0000;0.0000;0.0000;0.0000;0.0000;
54;   ;   ;   ;0.0000;0.0000;0.0000;0.0000;0.0000;0.0000;0.0000;
55;   ;   ;   ;0.0000;0.0000;0.0000;0.0000;0.0000;0.0000;0.0000;
56;   ;   ;   ;0.0000;0.0000;0.0000;0.0000;0.0000;0.0000;0.0000;
57;   ;   ;   ;0.0000;0.0000;0.0000;0.0000;0.0000;0.0000;0.0000;
58;   ;   ;   ;0.0000;0.0000;0.0000;0.0000;0.0000;0.0000;0.0000;
59;   ;   ;   ;0.0000;0.0000;0.0000;0.0000;0.0000;0.0000;0.0000;
60;   ;   ;   ;0.0000;0.0000;0.0000;0.0000;0.0000;0.0000;0.0000;
61;   ;   ;   ;0.0000;0.0000;0.0000;0.0000;0.0000;0.0000;0.0000;
62;   ;   ;   ;0.0000;0.0000;0.0000;0.0000;0.0000;0.0000;0.0000;
63;   ;   ;   ;0.0000;0.0000;0.0000;0.0000;0.0000;0.0000;0.0000;
64;   ;   ;   ;0.0000;0.0000;0.0000;0.0000;0.0000;0.0000;0.0000;
65;   ;   ;   ;0.0000;0.0000;0.0000;0.0000;0.0000;0.0000;0.0000;
66;   ;   ;   ;0.0000;0.0000;0.0000;0.0000;0.0000;0.0000;0.0000;
67;   ;   ;   ;0.0000;0.0000;0.0000;0.0000;0.0000;0.0000;0.0000;
68;   ;   ;   ;0.0000;0.0000;0.0000;0.0000;0.0000;0.0000;0.0000;
69;   ;   ;   ;0.0000;0.0000;0.0000;0.0000;0.0000;0.0000;0.0000;
70;   ;   ;   ;0.0000;0.0000;0.0000;0.0000;0.0000;0.0000;0.0000;
71;   ;   ;   ;0.0000;0.0000;0.0000;0.0000;0.0000;0.0000;0.0000;
72;   ;   ;   ;0.0000;0.0000;0.0000;0.0000;0.0000;0.0000;0.0000;
73;350.00;28571.50;-28571.50;0.0000;0.0000;0.0000;0.0000;0.0000;0.0000;0.0000;
74;350.44;28535.73;-28535.73;0.0000;0.0000;0.0000;0.0000;0.0000;0.0000;0.0000;
75;350.88;28500.06;-28500.06;0.0000;0.0000;0.0000;0.0000;0.0000;0.0000;0.0000;
76;351.32;28464.48;-28464.48;0.0000;0.0000;0.0000;0.0000;0.0000;0.0000;0.0000;
77;351.75;28428.99;-28428.99;0.0000;0.0000;0.0000;0.0000;0.0000;0.0000;0.0000;
78;352.19;28393.60;-28393.60;0.0000;0.0000;0.0000;0.0000;0.0000;0.0000;0.0000;
79;352.63;28358.30;-28358.30;0.0000;0.0000;0.0000;0.0000;0.0000;0.0000;0.0000;
80;353.07;28323.10;-28323.10;0.0000;0.0000;0.0000;0.0000;0.0000;0.0000;0.0000;
81;353.51;28287.99;-28287.99;0.0000;0.0000;0.0000;0.0000;0.0000;0.0000;0.0000;
82;353.95;28252.97;-28252.97;0.0000;0.0000;0.0000;0.0000;0.0000;0.0000;0.0000;
83;354.38;28218.04;-28218.04;0.0000;0.0000;0.0000;0.0000;0.0000;0.0000;0.0000;
84;354.82;28183.20;-28183.20;0.0000;0.0000;0.0000;0.0000;0.0000;0.0000;0.0000;
85;355.26;28148.46;-28148.46;0.0000;0.0000;0.0000;0.0000;0.0000;0.0000;0.0000;
86;355.70;28113.81;-28113.81;0.0000;0.0000;0.0000;0.0000;0.0000;0.0000;0.0000;
87;356.13;28079.24;-28079.24;0.0000;0.0000;0.0000;0.0000;0.0000;0.0000;0.0000;
88;356.57;28044.77;-28044.77;0.0000;0.0000;0.0000;0.0000;0.0000;0.0000;0.0000;
89;357.01;28010.38;-28010.38;0.0000;0.0000;0.0000;0.0000;0.0000;0.0000;0.0000;
90;357.45;27976.09;-27976.09;0.0000;0.0000;0.0000;0.0000;0.0000;0.0000;0.0000;
91;357.89;27941.88;-27941.88;0.0000;0.0000;0.0000;0.0000;0.0000;0.0000;0.0000;
92;358.32;27907.77;-27907.77;0.0000;0.0000;0.0000;0.0000;0.0000;0.0000;0.0000;
93;358.76;27873.74;-27873.74;0.0000;0.0000;0.0000;0.0000;0.0000;0.0000;0.0000;
94;359.20;27839.80;-27839.80;0.0000;0.0000;0.0000;0.0000;0.0000;0.0000;0.0000;
95;359.64;27805.95;-27805.95;0.0000;0.0000;0.0000;0.0000;0.0000;0.0000;0.0000;
96;360.07;27772.18;-27772.18;0.0000;0.0000;0.0000;0.0000;0.0000;0.0000;0.0000;
97;360.51;27738.50;-27738.50;0.0000;0.0000;0.0000;0.0000;0.0000;0.0000;0.0000;
98;360.95;27704.91;-27704.91;0.0000;0.0000;0.0000;0.0000;0.0000;0.0000;0.0000;
99;361.38;27671.41;-27671.41;0.0000;0.0000;0.0000;0.0000;0.0000;0.0000;0.0000;
100;361.82;27637.99;-27637.99;0.0000;0.0000;0.0000;0.0000;0.0000;0.0000;0.0000;
101;362.26;27604.66;-27604.66;0.0000;0.0000;0.0000;0.0000;0.0000;0.0000;0.0000;
102;362.69;27571.41;-27571.41;0.0000;0.0000;0.0000;0.0000;0.0000;0.0000;0.0000;
103;363.13;27538.25;-27538.25;0.0000;0.0000;0.0000;0.0000;0.0000;0.0000;0.0000;
104;363.57;27505.17;-27505.17;0.0000;0.0000;0.0000;0.0000;0.0000;0.0000;0.0000;
105;364.00;27472.17;-27472.17;0.0000;0.0000;0.0000;0.0000;0.0000;0.0000;0.0000;
106;364.44;27439.26;-27439.26;0.0000;0.0000;0.0000;0.0000;0.0000;0.0000;0.0000;
107;364.88;27406.44;-27406.44;0.0000;0.0000;0.0000;0.0000;0.0000;0.0000;0.0000;
108;365.31;27373.70;-27373.70;0.0000;0.0000;0.0000;0.0000;0.0000;0.0000;0.0000;
109;365.75;27341.04;-27341.04;0.0000;0.0000;0.0000;0.0000;0.0000;0.0000;0.0000;
110;366.19;27308.46;-27308.46;0.0000;0.0000;0.0000;0.0000;0.0000;0.0000;0.0000;
111;366.62;27275.97;-27275.97;0.0000;0.0000;0.0000;0.0000;0.0000;0.0000;0.0000;
112;367.06;27243.56;-27243.56;0.0000;0.0000;0.0000;0.0000;0.0000;0.0000;0.0000;
113;367.50;27211.23;-27211.23;0.0000;0.0000;0.0000;0.0000;0.0000;0.0000;0.0000;
114;367.93;27178.98;-27178.98;0.0000;0.0000;0.0000;0.0000;0.0000;0.0000;0.0000;
115;368.37;27146.81;-27146.81;0.0000;0.0000;0.0000;0.0000;0.0000;0.0000;0.0000;
116;368.80;27114.73;-27114.73;0.0000;0.0000;0.0000;0.0000;0.0000;0.0000;0.0000;
117;369.24;27082.72;-27082.72;0.0000;0.0000;0.0000;0.0000;0.0000;0.0000;0.0000;
118;369.67;27050.79;-27050.79;0.0000;0.0000;0.0000;0.0000;0.0000;0.0000;0.0000;
119;370.11;27018.95;-27018.95;0.0000;0.0000;0.0000;0.0000;0.0000;0.0000;0.0000;
120;370.55;26987.19;-26987.19;0.0000;0.0000;0.0000;0.0000;0.0000;0.0000;0.0000;
121;370.98;26955.50;-26955.50;0.0000;0.0000;0.0000;0.0000;0.0000;0.0000;0.0000;
122;371.42;26923.89;-26923.89;0.0000;0.0000;0.0000;0.0000;0.0000;0.0000;0.0000;
123;371.85;26892.37;-26892.37;0.0000;0.0000;0.0000;0.0000;0.0000;0.0000;0.0000;
124;372.29;26860.92;-26860.92;0.0000;0.0000;0.0000;0.0000;0.0000;0.0000;0.0000;
125;372.72;26829.55;-26829.55;0.0000;0.0000;0.0000;0.0000;0.0000;0.0000;0.0000;
126;373.16;26798.25;-26798.25;0.0000;0.0000;0.0000;0.0000;0.0000;0.0000;0.0000;
127;373.59;26767.04;-26767.04;0.0000;0.0000;0.0000;0.0000;0.0000;0.0000;0.0000;
128;374.03;26735.90;-26735.90;0.0000;0.0000;0.0000;0.0000;0.0000;0.0000;0.0000;
129;374.46;26704.84;-26704.84;0.0000;0.0000;0.0000;0.0000;0.0000;0.0000;0.0000;
130;374.90;26673.86;-26673.86;0.0000;0.0000;0.0000;0.0000;0.0000;0.0000;0.0000;
131;375.33;26642.95;-26642.95;0.0000;0.0000;0.0000;0.0000;0.0000;0.0000;0.0000;
132;375.77;26612.12;-26612.12;0.0000;0.0000;0.0000;0.0000;0.0000;0.0000;0.0000;
133;376.20;26581.36;-26581.36;0.0000;0.0000;0.0000;0.0000;0.0000;0.0000;0.0000;
134;376.64;26550.68;-26550.68;0.0000;0.0000;0.0000;0.0000;0.0000;0.0000;0.0000;
135;377.07;26520.08;-26520.08;0.0000;0.0000;0.0000;0.0000;0.0000;0.0000;0.0000;
136;377.51;26489.55;-26489.55;0.0000;0.0000;0.0000;0.0000;0.0000;0.0000;0.0000;
137;377.94;26459.10;-26459.10;0.0000;0.0000;0.0000;0.0000;0.0000;0.0000;0.0000;
138;378.38;26428.72;-26428.72;0.0000;0.0000;0.0000;0.0000;0.0000;0.0000;0.0000;
139;378.81;26398.42;-26398.42;0.0000;0.0000;0.0000;0.0000;0.0000;0.0000;0.0000;
140;379.24;26368.18;-26368.18;0.0000;0.0000;0.0000;0.0000;0.0000;0.0000;0.0000;
141;379.68;26338.03;-26338.03;0.0000;0.0000;0.0000;0.0000;0.0000;0.0000;0.0000;
142;380.11;26307.95;-26307.95;0.0000;0.0000;0.0000;0.0000;0.0000;0.0000;0.0000;
143;380.55;26277.94;-26277.94;0.0000;0.0000;0.0000;0.0000;0.0000;0.0000;0.0000;
144;380.98;26248.00;-26248.00;0.0000;0.0000;0.0000;0.0000;0.0000;0.0000;0.0000;
145;381.42;26218.13;-26218.13;0.0000;0.0000;0.0000;0.0000;0.0000;0.0000;0.0000;
146;381.85;26188.34;-26188.34;0.0000;0.0000;0.0000;0.0000;0.0000;0.0000;0.0000;
147;382.28;26158.62;-26158.62;0.0000;0.0000;0.0000;0.0000;0.0000;0.0000;0.0000;
148;382.72;26128.98;-26128.98;0.0000;0.0000;0.0000;0.0000;0.0000;0.0000;0.0000;
149;383.15;26099.40;-26099.40;0.0000;0.0000;0.0000;0.0000;0.0000;0.0000;0.0000;
150;383.58;26069.90;-26069.90;0.0000;0.0000;0.0000;0.0000;0.0000;0.0000;0.0000;
151;384.02;26040.46;-26040.46;0.0000;0.0000;0.0000;0.0000;0.0000;0.0000;0.0000;
152;384.45;26011.10;-26011.10;0.0000;0.0000;0.0000;0.0000;0.0000;0.0000;0.0000;
153;384.88;25981.81;-25981.81;0.0000;0.0000;0.0000;0.0000;0.0000;0.0000;0.0000;
154;385.32;25952.59;-25952.59;0.0000;0.0000;0.0000;0.0000;0.0000;0.0000;0.0000;
155;385.75;25923.44;-25923.44;0.0000;0.0000;0.0000;0.0000;0.0000;0.0000;0.0000;
156;386.18;25894.36;-25894.36;0.0000;0.0000;0.0000;0.0000;0.0000;0.0000;0.0000;
157;386.62;25865.34;-25865.34;0.0000;0.0000;0.0000;0.0000;0.0000;0.0000;0.0000;
158;387.05;25836.40;-25836.40;0.0000;0.0000;0.0000;0.0000;0.0000;0.0000;0.0000;
159;387.48;25807.53;-25807.53;0.0000;0.0000;0.0000;0.0000;0.0000;0.0000;0.0000;
160;387.92;25778.73;-25778.73;0.0000;0.0000;0.0000;0.0000;0.0000;0.0000;0.0000;
161;388.35;25749.99;-25749.99;0.0000;0.0000;0.0000;0.0000;0.0000;0.0000;0.0000;
162;388.78;25721.32;-25721.32;0.0000;0.0000;0.0000;0.0000;0.0000;0.0000;0.0000;
163;389.22;25692.72;-25692.72;0.0000;0.0000;0.0000;0.0000;0.0000;0.0000;0.0000;
164;389.65;25664.19;-25664.19;0.0000;0.0000;0.0000;0.0000;0.0000;0.0000;0.0000;
165;390.08;25635.73;-25635.73;0.0000;0.0000;0.0000;0.0000;0.0000;0.0000;0.0000;
166;390.51;25607.34;-25607.34;0.0000;0.0000;0.0000;0.0000;0.0000;0.0000;0.0000;
167;390.95;25579.01;-25579.01;0.0000;0.0000;0.0000;0.0000;0.0000;0.0000;0.0000;
168;391.38;25550.75;-25550.75;0.0000;0.0000;0.0000;0.0000;0.0000;0.0000;0.0000;
169;391.81;25522.55;-25522.55;0.0000;0.0000;0.0000;0.0000;0.0000;0.0000;0.0000;
170;392.24;25494.42;-25494.42;0.0000;0.0000;0.0000;0.0000;0.0000;0.0000;0.0000;
171;392.67;25466.36;-25466.36;0.0000;0.0000;0.0000;0.0000;0.0000;0.0000;0.0000;
172;393.11;25438.37;-25438.37;0.0000;0.0000;0.0000;0.0000;0.0000;0.0000;0.0000;
173;393.54;25410.44;-25410.44;0.0000;0.0000;0.0000;0.0000;0.0000;0.0000;0.0000;
174;393.97;25382.57;-25382.57;0.0000;0.0000;0.0000;0.0000;0.0000;0.0000;0.0000;
175;394.40;25354.77;-25354.77;0.0000;0.0000;0.0000;0.0000;0.0000;0.0000;0.0000;
176;394.83;25327.04;-25327.04;0.0000;0.0000;0.0000;0.0000;0.0000;0.0000;0.0000;
177;395.27;25299.37;-25299.37;0.0000;0.0000;0.0000;0.0000;0.0000;0.0000;0.0000;
178;395.70;25271.77;-25271.77;0.0000;0.0000;0.0000;0.0000;0.0000;0.0000;0.0000;
179;396.13;25244.23;-25244.23;0.0000;0.0000;0.0000;0.0000;0.0000;0.0000;0.0000;
180;396.56;25216.75;-25216.75;0.0000;0.0000;0.0000;0.0000;0.0000;0.0000;0.0000;
181;396.99;25189.34;-25189.34;0.0000;0.0000;0.0000;0.0000;0.0000;0.0000;0.0000;
182;397.42;25161.99;-25161.99;0.0000;0.0000;0.0000;0.0000;0.0000;0.0000;0.0000;
183;397.86;25134.71;-25134.71;0.0000;0.0000;0.0000;0.0000;0.0000;0.0000;0.0000;
184;398.29;25107.49;-25107.49;0.0000;0.0000;0.0000;0.0000;0.0000;0.0000;0.0000;
185;398.72;25080.33;-25080.33;0.0000;0.0000;0.0000;0.0000;0.0000;0.0000;0.0000;
186;399.15;25053.24;-25053.24;0.0000;0.0000;0.0000;0.0000;0.0000;0.0000;0.0000;
187;399.58;25026.20;-25026.20;0.0000;0.0000;0.0000;0.0000;0.0000;0.0000;0.0000;
188;400.01;24999.24;-24999.24;0.0000;0.0000;0.0000;0.0000;0.0000;0.0000;0.0000;
189;400.44;24972.33;-24972.33;0.0000;0.0000;0.0000;0.0000;0.0000;0.0000;0.0000;
190;400.87;24945.48;-24945.48;0.0000;0.0000;0.0000;0.0000;0.0000;0.0000;0.0000;
191;401.31;24918.70;-24918.70;0.0000;0.0000;0.0000;0.0000;0.0000;0.0000;0.0000;
192;401.74;24891.98;-24891.98;0.0000;0.0000;0.0000;0.0000;0.0000;0.0000;0.0000;
193;402.17;24865.32;-24865.32;0.0000;0.0000;0.0000;0.0000;0.0000;0.0000;0.0000;
194;402.60;24838.72;-24838.72;0.0000;0.0000;0.0000;0.0000;0.0000;0.0000;0.0000;
195;403.03;24812.18;-24812.18;0.0000;0.0000;0.0000;0.0000;0.0000;0.0000;0.0000;
196;403.46;24785.70;-24785.70;0.0000;0.0000;0.0000;0.0000;0.0000;0.0000;0.0000;
197;403.89;24759.29;-24759.29;0.0000;0.0000;0.0000;0.0000;0.0000;0.0000;0.0000;
198;404.32;24732.93;-24732.93;0.0000;0.0000;0.0000;0.0000;0.0000;0.0000;0.0000;
199;404.75;24706.63;-24706.63;0.0000;0.0000;0.0000;0.0000;0.0000;0.0000;0.0000;
200;405.18;24680.40;-24680.40;0.0000;0.0000;0.0000;0.0000;0.0000;0.0000;0.0000;
201;405.61;24654.22;-24654.22;0.0000;0.0000;0.0000;0.0000;0.0000;0.0000;0.0000;
202;406.04;24628.11;-24628.11;0.0000;0.0000;0.0000;0.0000;0.0000;0.0000;0.0000;
203;406.47;24602.05;-24602.05;0.0000;0.0000;0.0000;0.0000;0.0000;0.0000;0.0000;
204;406.90;24576.05;-24576.05;0.0000;0.0000;0.0000;0.0000;0.0000;0.0000;0.0000;
205;407.33;24550.11;-24550.11;0.0000;0.0000;0.0000;0.0000;0.0000;0.0000;0.0000;
206;407.76;24524.23;-24524.23;0.0000;0.0000;0.0000;0.0000;0.0000;0.0000;0.0000;
207;408.19;24498.41;-24498.41;0.0000;0.0000;0.0000;0.0000;0.0000;0.0000;0.0000;
208;408.62;24472.64;-24472.64;0.0000;0.0000;0.0000;0.0000;0.0000;0.0000;0.0000;
209;409.05;24446.94;-24446.94;0.0000;0.0000;0.0000;0.0000;0.0000;0.0000;0.0000;
210;409.48;24421.29;-24421.29;0.0000;0.0000;0.0000;0.0000;0.0000;0.0000;0.0000;
211;409.91;24395.70;-24395.70;0.0000;0.0000;0.0000;0.0000;0.0000;0.0000;0.0000;
212;410.34;24370.17;-24370.17;0.0000;0.0000;0.0000;0.0000;0.0000;0.0000;0.0000;
213;410.77;24344.69;-24344.69;0.0000;0.0000;0.0000;0.0000;0.0000;0.0000;0.0000;
214;411.20;24319.28;-24319.28;0.0000;0.0000;0.0000;0.0000;0.0000;0.0000;0.0000;
215;411.63;24293.92;-24293.92;0.0000;0.0000;0.0000;0.0000;0.0000;0.0000;0.0000;
216;412.05;24268.61;-24268.61;0.0000;0.0000;0.0000;0.0000;0.0000;0.0000;0.0000;
217;412.48;24243.36;-24243.36;0.0000;0.0000;0.0000;0.0000;0.0000;0.0000;0.0000;
218;412.91;24218.17;-24218.17;0.0000;0.0000;0.0000;0.0000;0.0000;0.0000;0.0000;
219;413.34;24193.04;-24193.04;0.0000;0.0000;0.0000;0.0000;0.0000;0.0000;0.0000;
220;413.77;24167.96;-24167.96;0.0000;0.0000;0.0000;0.0000;0.0000;0.0000;0.0000;
221;414.20;24142.94;-24142.94;0.0000;0.0000;0.0000;0.0000;0.0000;0.0000;0.0000;
222;414.63;24117.97;-24117.97;0.0000;0.0000;0.0000;0.0000;0.0000;0.0000;0.0000;
223;415.06;24093.06;-24093.06;0.0000;0.0000;0.0000;0.0000;0.0000;0.0000;0.0000;
224;415.49;24068.20;-24068.20;0.0000;0.0000;0.0000;0.0000;0.0000;0.0000;0.0000;
225;415.91;24043.40;-24043.40;0.0000;0.0000;0.0000;0.0000;0.0000;0.0000;0.0000;
226;416.34;24018.66;-24018.66;0.0000;0.0000;0.0000;0.0000;0.0000;0.0000;0.0000;
227;416.77;23993.97;-23993.97;0.0000;0.0000;0.0000;0.0000;0.0000;0.0000;0.0000;
228;417.20;23969.33;-23969.33;0.0000;0.0000;0.0000;0.0000;0.0000;0.0000;0.0000;
229;417.63;23944.75;-23944.75;0.0000;0.0000;0.0000;0.0000;0.0000;0.0000;0.0000;
230;418.06;23920.22;-23920.22;0.0000;0.0000;0.0000;0.0000;0.0000;0.0000;0.0000;
231;418.48;23895.75;-23895.75;0.0000;0.0000;0.0000;0.0000;0.0000;0.0000;0.0000;
232;418.91;23871.33;-23871.33;0.0000;0.0000;0.0000;0.0000;0.0000;0.0000;0.0000;
233;419.34;23846.96;-23846.96;0.0000;0.0000;0.0000;0.0000;0.0000;0.0000;0.0000;
234;419.77;23822.65;-23822.65;0.0000;0.0000;0.0000;0.0000;0.0000;0.0000;0.0000;
235;420.20;23798.39;-23798.39;0.0000;0.0000;0.0000;0.0000;0.0000;0.0000;0.0000;
236;420.62;23774.18;-23774.18;0.0000;0.0000;0.0000;0.0000;0.0000;0.0000;0.0000;
237;421.05;23750.03;-23750.03;0.0000;0.0000;0.0000;0.0000;0.0000;0.0000;0.0000;
